File: Files/CH4_RM8850_Exp.aif
data_CH4_RM8850
_exptl_adsorptive VNWKTOKETHGBQD-UHFFFAOYSA-N
_exptl_temperature 298
_sample_material_id 'Zeolite Y'
_units_temperature K
_units_pressure MegaPa
_units_loading MilliMOL_PER_GM
_isotherm_type excess
_exptl_adsorptive_name CH4
_adsorbent_info 'NIST RM-8850'
_exptl_method manometric
_exptl_operator 'Christopher Sims'

loop_
_adsorp_pressure
_adsorp_amount
_adsorp_amount_uncertainty
0.000029    0.000579    0.000019
0.071288    0.282070    0.010137
0.168060    0.642275    0.019439
0.268172    0.989427    0.024757
0.372416    1.315009    0.038207
0.479653    1.615110    0.059994
0.589534    1.884142    0.045769
0.688235    2.095538    0.083081
0.795883    2.296191    0.072428
0.896598    2.464596    0.057003
0.996046    2.609806    0.082213
1.186761    2.842812    0.075022
1.406883    3.060028    0.066370
1.605250    3.218843    0.091777
1.819001    3.361013    0.085482
2.026540    3.476169    0.095324
2.231409    3.569069    0.074919
2.433216    3.647970    0.113606
2.634022    3.714282    0.074581
2.848337    3.774437    0.142995
3.028884    3.816274    0.097945
3.530694    3.909312    0.111395
3.932648    3.962675    0.132450
4.422912    4.003254    0.103386
4.875136    4.026213    0.138835
5.308160    4.034220    0.090598
5.796363    4.042299    0.125488
6.231372    4.030501    0.118167
6.687830    4.023547    0.152540