File: Files/Xe_Vycor_Exp.aif
data_Xe_Vycor
_exptl_adsorptive FHNFHKCVQCLJFQ-UHFFFAOYSA-N
_exptl_temperature 131.47
_sample_material_id 'Vycor Glass'
_sample_mass 61.6
_units_temperature K
_units_pressure Bar
_units_loading MilliMOL_PER_GM
_units_mass MilliGM
_isotherm_type excess
_exptl_adsorptive_name Xenon
_exptl_method manometric
_exptl_operator 'AJ Brown'
_exptl_date 1963

loop_
_adsorp_pressure
_adsorp_p0
_adsorp_amount
_adsorp_amount_uncertainty
0.0001  0.0608  0.3400  0.0074
0.0049  0.0608  0.6022  0.0037
0.0108  0.0608  0.8470  0.0062
0.0181  0.0608  1.1079  0.0074
0.0203  0.0608  1.1820  0.0037
0.0222  0.0608  1.2538  0.0074
0.0252  0.0608  1.3700  0.0111
0.0279  0.0608  1.4850  0.0049
0.0304  0.0608  1.6049  0.0012
0.0362  0.0608  1.9338  0.0049
0.0392  0.0608  2.1972  0.0000
0.0412  0.0608  2.3728  0.0049
0.0438  0.0608  2.6633  0.0037
0.0464  0.0608  2.9625  0.0000
0.0486  0.0608  3.3075  0.0087
0.0511  0.0608  3.6438  0.0049
0.0538  0.0608  3.9727  0.0062
0.0554  0.0608  4.1260  0.0037
0.0577  0.0608  4.1978  0.0111
0.0603  0.0608  4.2583  0.0111
0.0608  0.0608  4.2868  0.0087

loop_
_desorp_pressure
_desorp_p0
_desorp_amount
_desorp_amount_uncertainty
0.0608  0.0608  4.2868  0.0087
0.0599  0.0608  4.2621  0.0087
0.0565  0.0608  4.2571  0.0049
0.0529  0.0608  4.2497  0.0049
0.0494  0.0608  4.2410  0.0000
0.0445  0.0608  4.2064  0.0025
0.0398  0.0608  4.1817  0.0012
0.0377  0.0608  4.1545  0.0074
0.0357  0.0608  4.1038  0.0062
0.0340  0.0608  3.9307  0.0000
0.0328  0.0608  3.5214  0.0037
0.0317  0.0608  2.9564  0.0049
0.0311  0.0608  2.4197  0.0012
0.0294  0.0608  2.0327  0.0074
0.0280  0.0608  1.8027  0.0049
0.0269  0.0608  1.6568  0.0062
0.0256  0.0608  1.5381  0.0012
0.0243  0.0608  1.4467  0.0111
0.0230  0.0608  1.3663  0.0074
0.0219  0.0608  1.3082  0.0074
0.0208  0.0608  1.2501  0.0062
0.0197  0.0608  1.1808  0.0099
0.0179  0.0608  1.1289  0.0025
0.0161  0.0608  1.0473  0.0099
0.0140  0.0608  0.9545  0.0062
0.0115  0.0608  0.8742  0.0000
0.0062  0.0608  0.6553  0.0025
0.0031  0.0608  0.5045  0.0025
0.0019  0.0608  0.4142  0.0000
0.0001  0.0608  0.3400  0.0074